Spectrum Name:
Description:
Student ID:
Detector Used:
Comments:
Acquisition Mode:	Mossbauer Internal
High Voltage:	1220
Conversion Gain:	512
Coarse Gain:	6
Fine Gain:	1
Upper Discriminator:	316
Lower Discriminator:	201
Calibration Coefficients:	3.827506058639514E-8	3.099323970007371E-4	0.03770531336005996
Calibration Channels:	778	922	1669
Calibration Energies:	0.302	0.356	0.6616
Elapsed Real Time:	0.0
Elapsed Live Time:	0.0
Start Time:	May 06, 2016, 04:10:13
End Time:	May 06, 2016, 04:35:34
ROIs:
ROI:	Low	High	Gross	Net	FWHM	Centroid


Channel Data:
Channel	Energy	Counts
0	0.0	2935
1	1.0	3115
2	2.0	3018
3	3.0	2951
4	4.0	3001
5	5.0	3022
6	6.0	3052
7	7.0	2967
8	8.0	3035
9	9.0	3050
10	10.0	2988
11	11.0	2978
12	12.0	3025
13	13.0	3027
14	14.0	2981
15	15.0	3066
16	16.0	3028
17	17.0	3015
18	18.0	3023
19	19.0	3043
20	20.0	2957
21	21.0	3032
22	22.0	3033
23	23.0	2903
24	24.0	3044
25	25.0	2953
26	26.0	3064
27	27.0	2948
28	28.0	2936
29	29.0	3013
30	30.0	2782
31	31.0	2750
32	32.0	2831
33	33.0	2941
34	34.0	2968
35	35.0	2941
36	36.0	2973
37	37.0	3009
38	38.0	2988
39	39.0	2745
40	40.0	2793
41	41.0	3005
42	42.0	2904
43	43.0	2886
44	44.0	3031
45	45.0	2944
46	46.0	3005
47	47.0	3047
48	48.0	3057
49	49.0	2970
50	50.0	2919
51	51.0	3121
52	52.0	2927
53	53.0	2927
54	54.0	3049
55	55.0	3013
56	56.0	3003
57	57.0	3019
58	58.0	2964
59	59.0	2951
60	60.0	3000
61	61.0	2991
62	62.0	2979
63	63.0	2970
64	64.0	2967
65	65.0	2952
66	66.0	3098
67	67.0	2848
68	68.0	2941
69	69.0	2962
70	70.0	2919
71	71.0	2948
72	72.0	3018
73	73.0	2982
74	74.0	3013
75	75.0	2981
76	76.0	3026
77	77.0	2939
78	78.0	3010
79	79.0	2950
80	80.0	2983
81	81.0	2960
82	82.0	2945
83	83.0	2960
84	84.0	2969
85	85.0	2995
86	86.0	2907
87	87.0	3005
88	88.0	3105
89	89.0	3018
90	90.0	2954
91	91.0	2991
92	92.0	3014
93	93.0	3111
94	94.0	3071
95	95.0	2988
96	96.0	3072
97	97.0	3000
98	98.0	2992
99	99.0	2979
100	100.0	3023
101	101.0	2883
102	102.0	2975
103	103.0	3035
104	104.0	3051
105	105.0	2930
106	106.0	3111
107	107.0	2977
108	108.0	2906
109	109.0	3004
110	110.0	3039
111	111.0	3067
112	112.0	2995
113	113.0	2979
114	114.0	2869
115	115.0	3032
116	116.0	3014
117	117.0	2989
118	118.0	3000
119	119.0	3028
120	120.0	2908
121	121.0	2871
122	122.0	2963
123	123.0	2970
124	124.0	3017
125	125.0	2976
126	126.0	2941
127	127.0	2996
128	128.0	2967
129	129.0	2949
130	130.0	2992
131	131.0	2967
132	132.0	2863
133	133.0	2962
134	134.0	3014
135	135.0	2951
136	136.0	3016
137	137.0	3086
138	138.0	3068
139	139.0	3023
140	140.0	2942
141	141.0	2946
142	142.0	3003
143	143.0	3086
144	144.0	3002
145	145.0	2986
146	146.0	2933
147	147.0	2969
148	148.0	3004
149	149.0	3028
150	150.0	2888
151	151.0	2970
152	152.0	2872
153	153.0	2926
154	154.0	2992
155	155.0	3016
156	156.0	2996
157	157.0	3059
158	158.0	2947
159	159.0	2906
160	160.0	2911
161	161.0	3032
162	162.0	2929
163	163.0	3033
164	164.0	3007
165	165.0	2943
166	166.0	2969
167	167.0	3050
168	168.0	3026
169	169.0	2962
170	170.0	3018
171	171.0	2887
172	172.0	2938
173	173.0	3032
174	174.0	2902
175	175.0	2944
176	176.0	2977
177	177.0	2878
178	178.0	2993
179	179.0	2965
180	180.0	2897
181	181.0	3011
182	182.0	2880
183	183.0	3059
184	184.0	2921
185	185.0	3016
186	186.0	2990
187	187.0	2923
188	188.0	3038
189	189.0	2964
190	190.0	2871
191	191.0	2962
192	192.0	2961
193	193.0	3088
194	194.0	2941
195	195.0	2927
196	196.0	3061
197	197.0	2867
198	198.0	2967
199	199.0	2951
200	200.0	2998
201	201.0	2894
202	202.0	2916
203	203.0	3001
204	204.0	2956
205	205.0	2939
206	206.0	2998
207	207.0	2997
208	208.0	2914
209	209.0	2986
210	210.0	3035
211	211.0	2979
212	212.0	2960
213	213.0	2956
214	214.0	2988
215	215.0	2906
216	216.0	2948
217	217.0	3001
218	218.0	3007
219	219.0	3007
220	220.0	2991
221	221.0	3012
222	222.0	3004
223	223.0	3045
224	224.0	2875
225	225.0	3022
226	226.0	2944
227	227.0	2967
228	228.0	2893
229	229.0	2927
230	230.0	3035
231	231.0	2941
232	232.0	3030
233	233.0	2939
234	234.0	3025
235	235.0	2997
236	236.0	2929
237	237.0	2883
238	238.0	2908
239	239.0	2848
240	240.0	2942
241	241.0	2838
242	242.0	2840
243	243.0	2859
244	244.0	2853
245	245.0	2827
246	246.0	2794
247	247.0	2838
248	248.0	2694
249	249.0	2631
250	250.0	2691
251	251.0	2657
252	252.0	2638
253	253.0	2770
254	254.0	2805
255	255.0	2778
256	256.0	2893
257	257.0	2858
258	258.0	2974
259	259.0	2983
260	260.0	2952
261	261.0	2913
262	262.0	3018
263	263.0	2964
264	264.0	2988
265	265.0	2946
266	266.0	2928
267	267.0	2912
268	268.0	2864
269	269.0	2947
270	270.0	2961
271	271.0	2824
272	272.0	3022
273	273.0	2919
274	274.0	2871
275	275.0	2973
276	276.0	2912
277	277.0	2913
278	278.0	2962
279	279.0	2941
280	280.0	2968
281	281.0	2960
282	282.0	2999
283	283.0	2955
284	284.0	2962
285	285.0	2955
286	286.0	2953
287	287.0	3028
288	288.0	2935
289	289.0	3004
290	290.0	2934
291	291.0	2919
292	292.0	2981
293	293.0	2988
294	294.0	2977
295	295.0	3040
296	296.0	2919
297	297.0	2917
298	298.0	2844
299	299.0	2761
300	300.0	2847
301	301.0	2772
302	302.0	2763
303	303.0	2596
304	304.0	2539
305	305.0	2610
306	306.0	2732
307	307.0	2838
308	308.0	2831
309	309.0	2833
310	310.0	2821
311	311.0	2844
312	312.0	2832
313	313.0	2841
314	314.0	2929
315	315.0	2917
316	316.0	2975
317	317.0	2945
318	318.0	3034
319	319.0	2938
320	320.0	2928
321	321.0	2906
322	322.0	2927
323	323.0	3056
324	324.0	3018
325	325.0	2976
326	326.0	3080
327	327.0	2935
328	328.0	3003
329	329.0	3051
330	330.0	2975
331	331.0	2862
332	332.0	3010
333	333.0	3000
334	334.0	2943
335	335.0	3023
336	336.0	2998
337	337.0	2910
338	338.0	3001
339	339.0	2892
340	340.0	2948
341	341.0	3013
342	342.0	2949
343	343.0	2975
344	344.0	3003
345	345.0	2963
346	346.0	2986
347	347.0	2962
348	348.0	3010
349	349.0	3057
350	350.0	3075
351	351.0	3009
352	352.0	3017
353	353.0	3051
354	354.0	2919
355	355.0	2983
356	356.0	2977
357	357.0	2945
358	358.0	2908
359	359.0	2916
360	360.0	2938
361	361.0	2972
362	362.0	3037
363	363.0	2904
364	364.0	3002
365	365.0	3009
366	366.0	2986
367	367.0	2975
368	368.0	2962
369	369.0	2957
370	370.0	2950
371	371.0	2920
372	372.0	2988
373	373.0	3016
374	374.0	2991
375	375.0	2930
376	376.0	3077
377	377.0	2938
378	378.0	3012
379	379.0	2957
380	380.0	3007
381	381.0	2909
382	382.0	2982
383	383.0	2991
384	384.0	3024
385	385.0	3039
386	386.0	2940
387	387.0	3025
388	388.0	2997
389	389.0	3077
390	390.0	3016
391	391.0	3004
392	392.0	2998
393	393.0	2947
394	394.0	2953
395	395.0	3078
396	396.0	3033
397	397.0	2946
398	398.0	3052
399	399.0	2989
400	400.0	2992
401	401.0	3063
402	402.0	3008
403	403.0	2987
404	404.0	2980
405	405.0	2950
406	406.0	2943
407	407.0	2948
408	408.0	2945
409	409.0	2974
410	410.0	2979
411	411.0	2928
412	412.0	2985
413	413.0	2972
414	414.0	2966
415	415.0	2937
416	416.0	2945
417	417.0	2868
418	418.0	2924
419	419.0	2926
420	420.0	3025
421	421.0	2996
422	422.0	2959
423	423.0	2999
424	424.0	2981
425	425.0	3069
426	426.0	3056
427	427.0	2990
428	428.0	2979
429	429.0	2942
430	430.0	2852
431	431.0	2971
432	432.0	3000
433	433.0	2959
434	434.0	2994
435	435.0	2959
436	436.0	3043
437	437.0	2995
438	438.0	2983
439	439.0	2879
440	440.0	2982
441	441.0	3023
442	442.0	2934
443	443.0	3017
444	444.0	2866
445	445.0	3019
446	446.0	3012
447	447.0	2899
448	448.0	2957
449	449.0	2974
450	450.0	3006
451	451.0	3054
452	452.0	2895
453	453.0	2915
454	454.0	3002
455	455.0	2929
456	456.0	2993
457	457.0	2922
458	458.0	2951
459	459.0	2969
460	460.0	2964
461	461.0	2947
462	462.0	2857
463	463.0	3007
464	464.0	3099
465	465.0	2990
466	466.0	2995
467	467.0	2972
468	468.0	2919
469	469.0	3016
470	470.0	3058
471	471.0	3041
472	472.0	3081
473	473.0	2948
474	474.0	2918
475	475.0	2965
476	476.0	2942
477	477.0	2959
478	478.0	3028
479	479.0	2973
480	480.0	2931
481	481.0	2832
482	482.0	3059
483	483.0	3087
484	484.0	3039
485	485.0	3011
486	486.0	2926
487	487.0	2998
488	488.0	3112
489	489.0	2958
490	490.0	2960
491	491.0	2942
492	492.0	2967
493	493.0	2904
494	494.0	3003
495	495.0	2986
496	496.0	2929
497	497.0	2926
498	498.0	2883
499	499.0	2979
500	500.0	3101
501	501.0	2940
502	502.0	3013
503	503.0	2947
504	504.0	2977
505	505.0	3016
506	506.0	2921
507	507.0	2990
508	508.0	2895
509	509.0	3009
510	510.0	2955
511	511.0	2955
